#No.   Frequency(eV)   Re(sigma)((hbar/e)*S/cm)   Im(sigma)((hbar/e)*S/cm)
   1     0.000000    -0.17935853E+04    0.00000000E+00
   2     0.100000    -0.18075417E+04   -0.30002298E+02
   3     0.200000    -0.18513961E+04   -0.65341336E+02
   4     0.300000    -0.19317544E+04   -0.11509526E+03
   5     0.400000    -0.20603830E+04   -0.20268667E+03
   6     0.500000    -0.22243216E+04   -0.40450977E+03
   7     0.600000    -0.21668297E+04   -0.67855159E+03
   8     0.700000    -0.23118149E+04   -0.64004044E+03
   9     0.800000    -0.28313399E+04   -0.95449469E+03
  10     0.900000    -0.34417184E+04   -0.21172256E+04
  11     1.000000    -0.21713751E+04   -0.45096888E+04
  12     1.100000     0.95105814E+03   -0.38342080E+04
  13     1.200000     0.12230055E+04   -0.16591865E+04
  14     1.300000     0.52716686E+03   -0.88802107E+03
  15     1.400000    -0.41363381E+02   -0.79071796E+03
  16     1.500000    -0.19464636E+03   -0.12023575E+04
  17     1.600000     0.27080561E+03   -0.99277799E+03
  18     1.700000     0.52712006E+02   -0.70661643E+03
  19     1.800000    -0.54547364E+02   -0.68446044E+03
  20     1.900000    -0.17685502E+03   -0.62865194E+03
  21     2.000000    -0.46548030E+03   -0.70246011E+03
  22     2.100000    -0.54500601E+03   -0.13169211E+04
  23     2.200000     0.31000244E+03   -0.15390801E+04
  24     2.300000     0.69566995E+03   -0.97435946E+03
  25     2.400000     0.62059421E+03   -0.54309915E+03
  26     2.500000     0.41949076E+03   -0.33506123E+03
  27     2.600000     0.24621244E+03   -0.25936722E+03
  28     2.700000     0.15915709E+03   -0.29598385E+03
  29     2.800000     0.15886627E+03   -0.21028290E+03
  30     2.900000     0.48414945E+02   -0.13415730E+03
  31     3.000000    -0.69876974E+02   -0.98466612E+02
  32     3.100000    -0.24709766E+03   -0.81048348E+02
  33     3.200000    -0.45168920E+03   -0.22076426E+03
  34     3.300000    -0.55308018E+03   -0.54572263E+03
  35     3.400000    -0.15240069E+03   -0.75046477E+03
  36     3.500000    -0.16285474E+03   -0.50369595E+03
  37     3.600000    -0.34941522E+03   -0.70317832E+03
  38     3.700000     0.42453291E+02   -0.98695573E+03
  39     3.800000     0.28703900E+03   -0.78227676E+03
  40     3.900000     0.42731543E+03   -0.59192463E+03
  41     4.000000     0.41084083E+03   -0.28424578E+03
  42     4.100000     0.21521955E+03   -0.15909918E+03
  43     4.200000     0.40854365E+02   -0.13461383E+03
  44     4.300000    -0.12549561E+03   -0.30472608E+03
  45     4.400000    -0.26964834E+02   -0.42781256E+03
  46     4.500000     0.38826478E+02   -0.55045924E+03
  47     4.600000     0.31293774E+03   -0.42630463E+03
  48     4.700000     0.25843767E+03   -0.25252135E+03
  49     4.800000     0.18356835E+03   -0.18915165E+03
  50     4.900000     0.14944175E+03   -0.16830315E+03
  51     5.000000     0.96496098E+02   -0.15549004E+03
  52     5.100000     0.93575033E+02   -0.13241203E+03
  53     5.200000     0.40363095E+01   -0.10685891E+03
  54     5.300000    -0.55317579E+02   -0.17322350E+03
  55     5.400000    -0.49594031E+02   -0.25904562E+03
  56     5.500000     0.76499366E+02   -0.27907188E+03
  57     5.600000     0.80635968E+02   -0.16129195E+03
  58     5.700000    -0.31489996E+01   -0.13473456E+03
  59     5.800000    -0.65526109E+02   -0.21227906E+03
  60     5.900000     0.47025262E+02   -0.29985193E+03
  61     6.000000     0.13885768E+03   -0.17448132E+03
  62     6.100000     0.78344149E+02   -0.87562837E+02
  63     6.200000     0.35534388E+02   -0.60387830E+02
  64     6.300000    -0.19635546E+02   -0.20499596E+02
  65     6.400000    -0.96070930E+02   -0.20081802E+02
  66     6.500000    -0.15666989E+03   -0.29732772E+02
  67     6.600000    -0.24431315E+03   -0.56928253E+02
  68     6.700000    -0.32675681E+03   -0.14013391E+03
  69     6.800000    -0.33025661E+03   -0.32909482E+03
  70     6.900000    -0.17064245E+03   -0.30878411E+03
  71     7.000000    -0.26125412E+03   -0.27412941E+03
