#No.   Frequency(eV)   Re(sigma)((hbar/e)*S/cm)   Im(sigma)((hbar/e)*S/cm)
   1     0.000000    -0.25760024E+04    0.00000000E+00
   2     0.100000    -0.25950607E+04   -0.40023211E+02
   3     0.200000    -0.26543003E+04   -0.84780929E+02
   4     0.300000    -0.27604946E+04   -0.14055747E+03
   5     0.400000    -0.29271595E+04   -0.21778034E+03
   6     0.500000    -0.31791264E+04   -0.33696243E+03
   7     0.600000    -0.35620218E+04   -0.54536336E+03
   8     0.700000    -0.41578289E+04   -0.97364141E+03
   9     0.800000    -0.50440345E+04   -0.20684505E+04
  10     0.900000    -0.51111531E+04   -0.51974403E+04
  11     1.000000    -0.52210931E+03   -0.62216915E+04
  12     1.100000     0.54006031E+02   -0.39399018E+04
  13     1.200000     0.57176542E+03   -0.40883478E+04
  14     1.300000     0.11758978E+04   -0.32707768E+04
  15     1.400000     0.20573549E+04   -0.23152140E+04
  16     1.500000     0.16173956E+04   -0.10799320E+04
  17     1.600000     0.10107013E+04   -0.65036360E+03
  18     1.700000     0.57356032E+03   -0.54036134E+03
  19     1.800000     0.27067149E+03   -0.53148758E+03
  20     1.900000     0.10143397E+03   -0.66368329E+03
  21     2.000000     0.14831788E+02   -0.66912879E+03
  22     2.100000    -0.48315371E+02   -0.76250213E+03
  23     2.200000    -0.14921613E+03   -0.93545963E+03
  24     2.300000    -0.10677021E+01   -0.12012941E+04
  25     2.400000     0.66210234E+03   -0.12419227E+04
  26     2.500000     0.76812343E+03   -0.57399811E+03
  27     2.600000     0.51756505E+03   -0.30121297E+03
  28     2.700000     0.31148919E+03   -0.21187962E+03
  29     2.800000     0.15398524E+03   -0.20554248E+03
  30     2.900000     0.95925703E+02   -0.22749215E+03
  31     3.000000     0.20388224E+02   -0.17235182E+03
  32     3.100000    -0.92728499E+02   -0.15002361E+03
  33     3.200000    -0.22606494E+03   -0.15914537E+03
  34     3.300000    -0.38367755E+03   -0.21436851E+03
  35     3.400000    -0.57569877E+03   -0.37865712E+03
  36     3.500000    -0.60463793E+03   -0.82050963E+03
  37     3.600000    -0.19217153E+03   -0.90006715E+03
  38     3.700000    -0.16659721E+03   -0.96808537E+03
  39     3.800000     0.18363244E+03   -0.94303466E+03
  40     3.900000     0.33388174E+03   -0.79863232E+03
  41     4.000000     0.39534760E+03   -0.54491021E+03
  42     4.100000     0.31925114E+03   -0.42098147E+03
  43     4.200000     0.29776893E+03   -0.37413660E+03
  44     4.300000     0.24383448E+03   -0.20954992E+03
  45     4.400000     0.11585089E+03   -0.16723795E+03
  46     4.500000     0.12939015E+02   -0.16412315E+03
  47     4.600000    -0.10424907E+03   -0.17380592E+03
  48     4.700000    -0.24956798E+03   -0.26378121E+03
  49     4.800000    -0.34102533E+03   -0.51706290E+03
  50     4.900000    -0.27345647E+02   -0.83188654E+03
  51     5.000000     0.29483068E+03   -0.58137839E+03
  52     5.100000     0.23131519E+03   -0.36087213E+03
  53     5.200000     0.15143321E+03   -0.32624339E+03
  54     5.300000     0.13798391E+03   -0.31341950E+03
  55     5.400000     0.83480863E+02   -0.25888036E+03
  56     5.500000     0.48840600E+01   -0.34683919E+03
  57     5.600000     0.15937354E+03   -0.40724154E+03
  58     5.700000     0.18532114E+03   -0.27498554E+03
  59     5.800000     0.15057136E+03   -0.19696995E+03
  60     5.900000     0.63256072E+02   -0.17105877E+03
  61     6.000000     0.27154403E+02   -0.21796017E+03
  62     6.100000     0.46596396E+02   -0.25665526E+03
  63     6.200000     0.11089593E+03   -0.18468889E+03
  64     6.300000     0.46914644E+02   -0.11510448E+03
  65     6.400000     0.23336237E+01   -0.84816612E+02
  66     6.500000    -0.90168344E+02   -0.39699900E+02
  67     6.600000    -0.23124332E+03   -0.62394035E+02
  68     6.700000    -0.34972552E+03   -0.17527901E+03
  69     6.800000    -0.38458721E+03   -0.40403853E+03
  70     6.900000    -0.16899423E+03   -0.52874410E+03
  71     7.000000    -0.67676662E+02   -0.37714785E+03
