#No.   Frequency(eV)   Re(sigma)((hbar/e)*S/cm)   Im(sigma)((hbar/e)*S/cm)
   1     0.000000    -0.26144116E+04    0.00000000E+00
   2     0.100000    -0.26341251E+04   -0.41417011E+02
   3     0.200000    -0.26954188E+04   -0.87776997E+02
   4     0.300000    -0.28053608E+04   -0.14565318E+03
   5     0.400000    -0.29780698E+04   -0.22598498E+03
   6     0.500000    -0.32395217E+04   -0.35037214E+03
   7     0.600000    -0.36375046E+04   -0.56880592E+03
   8     0.700000    -0.42576757E+04   -0.10202927E+04
   9     0.800000    -0.51752231E+04   -0.21824896E+04
  10     0.900000    -0.51538977E+04   -0.54750256E+04
  11     1.000000    -0.36210275E+03   -0.63766120E+04
  12     1.100000     0.18393448E+03   -0.39826587E+04
  13     1.200000     0.64509860E+03   -0.41049704E+04
  14     1.300000     0.12346098E+04   -0.33020880E+04
  15     1.400000     0.21293727E+04   -0.23424438E+04
  16     1.500000     0.16853086E+04   -0.10919406E+04
  17     1.600000     0.10722421E+04   -0.65554698E+03
  18     1.700000     0.62954194E+03   -0.54049943E+03
  19     1.800000     0.32072964E+03   -0.53111063E+03
  20     1.900000     0.14957963E+03   -0.66544040E+03
  21     2.000000     0.67333752E+02   -0.67330801E+03
  22     2.100000     0.18822672E+02   -0.76241037E+03
  23     2.200000    -0.76660453E+02   -0.90936932E+03
  24     2.300000     0.56399672E+02   -0.11488630E+04
  25     2.400000     0.67324593E+03   -0.11846176E+04
  26     2.500000     0.76802946E+03   -0.55048502E+03
  27     2.600000     0.52507141E+03   -0.29118018E+03
  28     2.700000     0.32463671E+03   -0.20696178E+03
  29     2.800000     0.17113047E+03   -0.20415576E+03
  30     2.900000     0.11946008E+03   -0.22887192E+03
  31     3.000000     0.49057896E+02   -0.17204380E+03
  32     3.100000    -0.60042856E+02   -0.14789197E+03
  33     3.200000    -0.18975745E+03   -0.15499043E+03
  34     3.300000    -0.34256827E+03   -0.20761382E+03
  35     3.400000    -0.52793339E+03   -0.36632885E+03
  36     3.500000    -0.55297043E+03   -0.79461744E+03
  37     3.600000    -0.14591715E+03   -0.86667450E+03
  38     3.700000    -0.11639020E+03   -0.91981046E+03
  39     3.800000     0.21656590E+03   -0.87319354E+03
  40     3.900000     0.33229980E+03   -0.72780756E+03
  41     4.000000     0.37660462E+03   -0.49585739E+03
  42     4.100000     0.30418663E+03   -0.39159787E+03
  43     4.200000     0.28302564E+03   -0.34387735E+03
  44     4.300000     0.22667129E+03   -0.19439475E+03
  45     4.400000     0.10591330E+03   -0.15925967E+03
  46     4.500000     0.10816176E+02   -0.15945454E+03
  47     4.600000    -0.99930069E+02   -0.16804996E+03
  48     4.700000    -0.24042092E+03   -0.25475125E+03
  49     4.800000    -0.33022577E+03   -0.50214481E+03
  50     4.900000    -0.23990012E+02   -0.81216963E+03
  51     5.000000     0.29635803E+03   -0.56947927E+03
  52     5.100000     0.23880492E+03   -0.34992209E+03
  53     5.200000     0.16183405E+03   -0.30997802E+03
  54     5.300000     0.14204223E+03   -0.29142293E+03
  55     5.400000     0.84328555E+02   -0.24330552E+03
  56     5.500000     0.94263216E+01   -0.32996755E+03
  57     5.600000     0.15965558E+03   -0.38748965E+03
  58     5.700000     0.18255732E+03   -0.25747239E+03
  59     5.800000     0.14513668E+03   -0.18316923E+03
  60     5.900000     0.59846616E+02   -0.16174474E+03
  61     6.000000     0.26361149E+02   -0.20924175E+03
  62     6.100000     0.47667083E+02   -0.24763138E+03
  63     6.200000     0.11309094E+03   -0.17567459E+03
  64     6.300000     0.50758076E+02   -0.10158561E+03
  65     6.400000    -0.38411098E+01   -0.71723993E+02
  66     6.500000    -0.93914457E+02   -0.36691886E+02
  67     6.600000    -0.22716642E+03   -0.60659889E+02
  68     6.700000    -0.34138879E+03   -0.17007134E+03
  69     6.800000    -0.37597208E+03   -0.39348027E+03
  70     6.900000    -0.16353391E+03   -0.52026917E+03
  71     7.000000    -0.55362555E+02   -0.36915765E+03
